date	time	module	serial	modype	area[m²]	
04.11.2025	17:31:49	PERC2_fixed_1MD439	my serial number	my module type	2.000000	
Sensorlist first point:
interface	channel	name	scalefactor	measurement value
COM1 301 Pyr 0.000009100 1116.735604

Monitor Cells:
interface	name	monitor channel	Channel-RTD4W	value	temperature	TempCorrIrradiance
COM1 015-2017 303 304 0.051852 37.457000 1054.980264
COM1 019-2017 305 306 0.052896 35.987000 1422.329363

Temperatures:
channel name	value	interface	voltage channel	current channel

electronic load: 
unit_id	port_type	port_number	SN	firmware	sweep_mode
8	TCP	192.168.152.8	ESL-SOLAR-500   SN  19.24.4495  	ET-ESL---------DEV-ET1502--U00008-V2.00.031	CV

Software Version: D:\measurement_programs\Outdoor_Dauer_Main_LV2012_ET2016_16bit_Messbereichsumschalter\Outdoor_Dauer_Main_LV2012_ET2016_16bit_v4.2_Autorange.exe\Outdoor_Dauer_Main_LV2012_ET2016_16bit_v4.2.vi-LV2012-ET2016_16bit_4.2_20170803
irradiation fluctuation in % according to monitor cell: 0.080633
Pmax	Imax	Umax	I@pmax	U@Pmax	FF_raw	Eta_raw	E0_pyr	MPPFit	IscFit	UocFit	EtaFit	ImppFit	UmppFit	FF_fit	MSE_MPPFit	Irradiation Fluctuation_in_percent		015-2017	019-2017	015-2017_temperature	019-2017_temperature
502.50	13.2747	50.421	12.3568	40.666	0.751	0.225	1116.7	502.13	13.2930	50.421	0.225	12.2922	40.850	0.749	1.56	0.0806		1054.98	1422.33	37.5	36.0	
U_raw[V]	I_raw[A]	P_raw[A]	
50.421200	0.000000	0.000000
49.958800	1.168500	58.374800
48.912800	3.582100	175.208300
47.871400	5.625800	269.313400
46.839100	7.344500	344.008400
45.800000	8.764500	401.412600
44.774500	9.903000	443.400200
43.740000	10.801600	472.459900
42.712300	11.484600	490.531500
41.686900	11.993400	499.965900
40.666100	12.356800	502.503700
39.633800	12.609500	499.763100
38.603800	12.770000	492.969300
37.608100	12.704100	477.775800
36.543800	12.778400	466.973100
35.520700	12.864300	456.948100
34.497600	12.861800	443.699600
33.472200	12.875700	430.978400
32.442200	12.876600	417.746300
31.414500	12.882400	404.692800
30.386800	12.884200	391.509300
29.347700	12.879400	377.979800
28.317700	12.878900	364.701300
27.283100	12.885800	351.564600
26.257700	12.886500	338.369400
25.236900	12.886000	325.203000
24.209200	12.929000	313.001900
23.167800	12.955400	300.147000
22.135500	12.941400	286.464500
21.110100	12.949900	273.373000
20.087000	12.950300	260.133000
19.052400	12.954500	246.813600
18.027000	12.946700	233.389700
16.990200	12.964300	220.265400
15.960200	12.960900	206.857600
14.930200	12.959900	193.494400
13.900200	12.972100	180.314500
12.881700	12.962000	166.972200
11.842500	13.030700	154.316100
10.812500	13.226100	143.008200
9.794000	13.260700	129.875400
8.752600	13.258200	116.043200
7.736300	13.258200	102.569600
6.694900	13.251100	88.714600
5.660300	13.252900	75.015900
4.639500	13.252700	61.485900
3.607200	13.260500	47.833600
2.497100	13.272400	33.143000
2.467400	13.272600	32.748600
2.435300	13.274700	32.328300
2.428500	13.264400	32.212200
