date	time	module	serial	modype	area[m²]	
04.11.2025	17:32:25	PERC2_fixed_1MD439	my serial number	my module type	2.000000	
Sensorlist first point:
interface	channel	name	scalefactor	measurement value
COM1 301 Pyr 0.000009100 1118.439121

Monitor Cells:
interface	name	monitor channel	Channel-RTD4W	value	temperature	TempCorrIrradiance
COM1 015-2017 303 304 0.051873 37.824000 1055.405697
COM1 019-2017 305 306 0.053012 36.424000 1425.439446

Temperatures:
channel name	value	interface	voltage channel	current channel

electronic load: 
unit_id	port_type	port_number	SN	firmware	sweep_mode
8	TCP	192.168.152.8	ESL-SOLAR-500   SN  19.24.4495  	ET-ESL---------DEV-ET1502--U00008-V2.00.031	CV

Software Version: D:\measurement_programs\Outdoor_Dauer_Main_LV2012_ET2016_16bit_Messbereichsumschalter\Outdoor_Dauer_Main_LV2012_ET2016_16bit_v4.2_Autorange.exe\Outdoor_Dauer_Main_LV2012_ET2016_16bit_v4.2.vi-LV2012-ET2016_16bit_4.2_20170803
irradiation fluctuation in % according to monitor cell: 0.201491
Pmax	Imax	Umax	I@pmax	U@Pmax	FF_raw	Eta_raw	E0_pyr	MPPFit	IscFit	UocFit	EtaFit	ImppFit	UmppFit	FF_fit	MSE_MPPFit	Irradiation Fluctuation_in_percent		015-2017	019-2017	015-2017_temperature	019-2017_temperature
503.18	13.3202	50.428	12.3735	40.666	0.749	0.225	1118.4	503.21	13.3260	50.428	0.225	12.3417	40.773	0.749	0.19	0.2015		1055.41	1425.44	37.8	36.4	
U_raw[V]	I_raw[A]	P_raw[A]	
50.428000	0.000000	0.000000
49.970200	1.165000	58.216700
48.908200	3.576300	174.912100
47.871400	5.630100	269.521600
46.841400	7.347200	344.153900
45.809100	8.765200	401.524300
44.774500	9.907100	443.584700
43.751400	10.815300	473.184400
42.721400	11.495800	491.115800
41.691500	12.002100	500.383500
40.666100	12.373500	503.183100
39.640700	12.625300	500.475700
38.610700	12.789400	493.808200
37.596700	12.817300	481.890100
36.550700	12.874800	470.582900
35.534400	12.881900	457.751000
34.499900	12.885600	444.550300
33.479100	12.890800	431.572500
32.444500	12.884200	418.020800
31.423700	12.889200	405.026500
30.389100	12.895600	391.886600
29.354500	12.897900	378.612500
28.324600	12.899100	365.360200
27.303700	12.900200	352.223700
26.269200	12.906400	339.040000
25.241500	12.909400	325.851300
24.206900	12.945500	313.371200
23.181500	12.951000	300.224100
22.149200	12.946700	286.758800
21.121500	12.953300	273.593800
20.091600	12.972300	260.633800
19.059300	12.973900	247.273300
18.033900	12.974100	233.974000
17.008500	12.985100	220.857100
15.971600	12.983500	207.367800
14.948500	12.986500	194.128600
13.936800	13.016700	181.411600
12.884000	12.986300	167.314500
11.849400	13.043000	154.552000
10.826300	13.245400	143.398000
9.778000	13.254300	129.600200
8.764000	13.264400	116.249100
7.740900	13.271200	102.731300
6.701800	13.268300	88.920700
5.671800	13.280800	75.326000
4.657800	13.283400	61.871500
3.616400	13.277400	48.016300
2.600100	13.284500	34.541500
2.421600	13.278800	32.156000
2.419300	13.282000	32.133400
2.378100	13.320200	31.677000
