date	time	module	serial	modype	area[m²]	
04.11.2025	17:30:37	PERC2_fixed_1MD439	my serial number	my module type	2.000000	
Sensorlist first point:
interface	channel	name	scalefactor	measurement value
COM1 301 Pyr 0.000009100 1112.845165

Monitor Cells:
interface	name	monitor channel	Channel-RTD4W	value	temperature	TempCorrIrradiance
COM1 015-2017 303 304 0.051770 37.442000 1053.301322
COM1 019-2017 305 306 0.052919 35.920000 1422.935413

Temperatures:
channel name	value	interface	voltage channel	current channel

electronic load: 
unit_id	port_type	port_number	SN	firmware	sweep_mode
8	TCP	192.168.152.8	ESL-SOLAR-500   SN  19.24.4495  	ET-ESL---------DEV-ET1502--U00008-V2.00.031	CV

Software Version: D:\measurement_programs\Outdoor_Dauer_Main_LV2012_ET2016_16bit_Messbereichsumschalter\Outdoor_Dauer_Main_LV2012_ET2016_16bit_v4.2_Autorange.exe\Outdoor_Dauer_Main_LV2012_ET2016_16bit_v4.2.vi-LV2012-ET2016_16bit_4.2_20170803
irradiation fluctuation in % according to monitor cell: 0.223161
Pmax	Imax	Umax	I@pmax	U@Pmax	FF_raw	Eta_raw	E0_pyr	MPPFit	IscFit	UocFit	EtaFit	ImppFit	UmppFit	FF_fit	MSE_MPPFit	Irradiation Fluctuation_in_percent		015-2017	019-2017	015-2017_temperature	019-2017_temperature
501.20	13.2307	50.382	12.3360	40.629	0.752	0.225	1112.8	501.44	13.2445	50.382	0.225	12.3167	40.712	0.751	0.05	0.2232		1053.30	1422.94	37.4	35.9	
U_raw[V]	I_raw[A]	P_raw[A]	
50.382200	0.000000	0.000000
49.924500	1.167300	58.277600
48.869300	3.568300	174.381400
47.837000	5.611400	268.430500
46.793300	7.329400	342.965400
45.767900	8.744800	400.230900
44.735600	9.883000	442.124100
43.712500	10.778000	471.132700
42.680200	11.463300	489.254900
41.650300	11.972300	498.649700
40.629400	12.336000	501.204900
39.604000	12.588500	498.553900
38.576300	12.748000	491.771000
37.562400	12.815300	481.372700
36.525500	12.847300	469.255600
35.495500	12.837000	455.657400
34.472400	12.847100	442.870800
33.447000	12.841200	429.498200
32.419300	12.845300	416.435000
31.387000	12.846600	403.218300
30.361600	12.853700	390.260700
29.329400	12.854000	376.998800
28.297100	12.857900	363.840100
27.276300	12.856700	350.683200
26.246300	12.859500	337.513100
25.223200	12.863800	324.466100
24.193200	12.902700	312.157900
23.163200	12.909800	299.032700
22.133200	12.913900	285.826900
21.105500	12.914600	272.569900
20.075500	12.925800	259.493200
19.075300	12.935900	246.756500
18.022400	12.945300	233.305700
16.994700	12.947800	220.044700
15.957900	12.949900	206.652600
14.932500	12.953100	193.421600
13.900200	12.953300	180.053600
12.874800	12.959500	166.850800
11.844800	13.002500	154.012400
10.814800	13.184300	142.585500
9.787100	13.199600	129.186200
8.759400	13.194300	115.574900
7.736300	13.198700	102.109200
6.697200	13.206500	88.446100
5.669500	13.214900	74.921900
4.650900	13.220600	61.488600
3.616400	13.222500	47.817600
2.609300	13.229600	34.519800
2.430800	13.229300	32.157400
2.410200	13.228900	31.883800
2.405600	13.230700	31.827600
