date	time	module	serial	modype	area[m²]	
04.11.2025	17:34:48	PERC2_fixed_1MD439	my serial number	my module type	2.000000	
Sensorlist first point:
interface	channel	name	scalefactor	measurement value
COM1 301 Pyr 0.000009100 1112.410220

Monitor Cells:
interface	name	monitor channel	Channel-RTD4W	value	temperature	TempCorrIrradiance
COM1 015-2017 303 304 0.051537 37.634000 1048.555646
COM1 019-2017 305 306 0.052707 36.176000 1417.229659

Temperatures:
channel name	value	interface	voltage channel	current channel

electronic load: 
unit_id	port_type	port_number	SN	firmware	sweep_mode
8	TCP	192.168.152.8	ESL-SOLAR-500   SN  19.24.4495  	ET-ESL---------DEV-ET1502--U00008-V2.00.031	CV

Software Version: D:\measurement_programs\Outdoor_Dauer_Main_LV2012_ET2016_16bit_Messbereichsumschalter\Outdoor_Dauer_Main_LV2012_ET2016_16bit_v4.2_Autorange.exe\Outdoor_Dauer_Main_LV2012_ET2016_16bit_v4.2.vi-LV2012-ET2016_16bit_4.2_20170803
irradiation fluctuation in % according to monitor cell: 0.183598
Pmax	Imax	Umax	I@pmax	U@Pmax	FF_raw	Eta_raw	E0_pyr	MPPFit	IscFit	UocFit	EtaFit	ImppFit	UmppFit	FF_fit	MSE_MPPFit	Irradiation Fluctuation_in_percent		015-2017	019-2017	015-2017_temperature	019-2017_temperature
502.24	13.2264	50.526	12.3275	40.742	0.752	0.226	1112.4	502.42	13.2319	50.526	0.226	12.2855	40.895	0.751	0.08	0.1836		1048.56	1417.23	37.6	36.2	
U_raw[V]	I_raw[A]	P_raw[A]	
50.526400	0.000000	0.000000
50.068700	1.189700	59.569000
49.006600	3.605200	176.677400
47.965200	5.642900	270.664800
46.930600	7.361200	345.465000
45.903000	8.772000	402.662100
44.861500	9.903900	444.302600
43.836100	10.792400	473.097000
42.810700	11.470600	491.064100
41.776100	11.968000	499.975100
40.741600	12.327500	502.243300
39.716200	12.570800	499.265800
38.683900	12.725100	492.257000
37.644800	12.769700	480.714000
36.623900	12.816400	469.388300
35.600800	12.812800	456.145200
34.568600	12.817600	443.085100
33.545400	12.821500	430.101700
32.508600	12.822400	416.837600
31.478600	12.824400	403.695600
30.444000	12.829000	390.567300
29.418600	12.832900	377.526700
28.384100	12.825600	364.042400
27.351800	12.834500	351.047100
26.324100	12.833600	337.833000
25.291800	12.834300	324.602600
24.261800	12.888800	312.705100
23.227300	12.893800	299.487900
22.195000	12.884400	285.969700
21.162700	12.889900	272.785700
20.130500	12.906400	259.811500
19.098200	12.915100	246.654800
18.068200	12.910000	233.261400
17.042800	12.917800	220.156000
16.008200	12.921500	206.850400
14.978300	12.922600	193.558600
13.902500	12.944200	179.956000
12.909100	12.925600	166.858400
11.876900	12.985800	154.230600
10.840000	13.174000	142.805800
9.828300	13.190000	129.635500
8.782300	13.202300	115.947300
7.754600	13.196600	102.334900
6.713200	13.199800	88.613100
5.685500	13.207400	75.090700
4.657800	13.208700	61.523900
3.625500	13.208700	47.888900
2.616200	13.214200	34.570500
2.520000	13.226400	33.330800
2.426200	13.209000	32.047400
2.423900	13.216300	32.034900
