date	time	module	serial	modype	area[m²]	
04.11.2025	17:28:45	PERC2_fixed_1MD439	my serial number	my module type	2.000000	
Sensorlist first point:
interface	channel	name	scalefactor	measurement value
COM1 301 Pyr 0.000009100 1112.990110

Monitor Cells:
interface	name	monitor channel	Channel-RTD4W	value	temperature	TempCorrIrradiance
COM1 015-2017 303 304 0.051862 37.398000 1055.181689
COM1 019-2017 305 306 0.052946 35.945000 1423.662678

Temperatures:
channel name	value	interface	voltage channel	current channel

electronic load: 
unit_id	port_type	port_number	SN	firmware	sweep_mode
8	TCP	192.168.152.8	ESL-SOLAR-500   SN  19.24.4495  	ET-ESL---------DEV-ET1502--U00008-V2.00.031	CV

Software Version: D:\measurement_programs\Outdoor_Dauer_Main_LV2012_ET2016_16bit_Messbereichsumschalter\Outdoor_Dauer_Main_LV2012_ET2016_16bit_v4.2_Autorange.exe\Outdoor_Dauer_Main_LV2012_ET2016_16bit_v4.2.vi-LV2012-ET2016_16bit_4.2_20170803
irradiation fluctuation in % according to monitor cell: -0.169719
Pmax	Imax	Umax	I@pmax	U@Pmax	FF_raw	Eta_raw	E0_pyr	MPPFit	IscFit	UocFit	EtaFit	ImppFit	UmppFit	FF_fit	MSE_MPPFit	Irradiation Fluctuation_in_percent		015-2017	019-2017	015-2017_temperature	019-2017_temperature
500.47	13.2703	50.295	12.3394	40.559	0.750	0.225	1113.0	500.71	13.2824	50.295	0.225	12.3252	40.625	0.750	0.04	-0.1697		1055.18	1423.66	37.4	35.9	
U_raw[V]	I_raw[A]	P_raw[A]	
50.295300	0.000000	0.000000
49.839800	1.168200	58.224400
48.780000	3.568100	174.051700
47.747800	5.601100	267.437800
46.715500	7.317500	341.839000
45.687800	8.733100	398.997000
44.660100	9.873900	440.968700
43.637000	10.772700	470.088900
42.607000	11.461700	488.347000
41.583900	11.972800	497.874000
40.558500	12.339400	500.468800
39.535400	12.595100	497.951900
38.507700	12.760100	491.362800
37.473100	12.822600	480.503200
36.461400	12.860200	468.899500
35.442900	12.862000	455.865900
34.415200	12.862400	442.663500
33.392100	12.864500	429.572400
32.364400	12.865600	416.388600
31.341300	12.867900	403.297400
30.311300	12.868600	390.064400
29.288200	12.871600	376.985400
28.258200	12.874600	363.812000
27.230500	12.875900	350.618200
26.207400	12.878200	337.504600
25.184300	12.879600	324.363300
24.154300	12.933200	312.391100
23.128900	12.937500	299.230000
22.101200	12.938400	285.954400
21.073500	12.940900	272.710700
20.050400	12.953500	259.723000
19.020400	12.959500	246.494200
17.992700	12.962700	233.233500
16.969600	12.967000	220.045000
15.939600	12.968900	206.718300
14.914200	12.974100	193.498500
13.863600	12.980500	179.956900
12.861100	12.981200	166.952500
11.835700	13.022000	154.123600
10.849200	13.175300	142.941300
9.780300	13.247900	129.567900
8.757200	13.251300	116.043800
7.731700	13.251300	102.455800
6.694900	13.255400	88.743800
5.671800	13.258200	75.197500
4.653200	13.259600	61.699900
3.618700	13.262800	47.993600
2.620700	13.267800	34.771400
2.460500	13.267800	32.645600
2.446800	13.269400	32.467400
2.446800	13.270300	32.469600
