date	time	module	serial	modype	area[m²]	
04.11.2025	17:35:25	PERC2_fixed_1MD439	my serial number	my module type	2.000000	
Sensorlist first point:
interface	channel	name	scalefactor	measurement value
COM1 301 Pyr 0.000009100 1111.226154

Monitor Cells:
interface	name	monitor channel	Channel-RTD4W	value	temperature	TempCorrIrradiance
COM1 015-2017 303 304 0.051537 37.177000 1048.555646
COM1 019-2017 305 306 0.052648 35.683000 1415.642081

Temperatures:
channel name	value	interface	voltage channel	current channel

electronic load: 
unit_id	port_type	port_number	SN	firmware	sweep_mode
8	TCP	192.168.152.8	ESL-SOLAR-500   SN  19.24.4495  	ET-ESL---------DEV-ET1502--U00008-V2.00.031	CV

Software Version: D:\measurement_programs\Outdoor_Dauer_Main_LV2012_ET2016_16bit_Messbereichsumschalter\Outdoor_Dauer_Main_LV2012_ET2016_16bit_v4.2_Autorange.exe\Outdoor_Dauer_Main_LV2012_ET2016_16bit_v4.2.vi-LV2012-ET2016_16bit_4.2_20170803
irradiation fluctuation in % according to monitor cell: -0.014941
Pmax	Imax	Umax	I@pmax	U@Pmax	FF_raw	Eta_raw	E0_pyr	MPPFit	IscFit	UocFit	EtaFit	ImppFit	UmppFit	FF_fit	MSE_MPPFit	Irradiation Fluctuation_in_percent		015-2017	019-2017	015-2017_temperature	019-2017_temperature
502.01	13.1964	50.565	12.3129	40.771	0.752	0.226	1111.2	502.29	13.2201	50.565	0.226	12.2727	40.928	0.751	0.04	-0.0149		1048.56	1415.64	37.2	35.7	
U_raw[V]	I_raw[A]	P_raw[A]	
50.565300	0.000000	0.000000
50.109900	1.177200	58.987200
49.041000	3.597600	176.430800
48.001800	5.640000	270.728500
46.960400	7.355200	345.404600
45.932700	8.764000	402.555100
44.902700	9.897700	444.433200
43.865900	10.786200	473.147000
42.833600	11.458700	490.816700
41.801300	11.958300	499.874600
40.771300	12.312900	502.012900
39.741400	12.556000	498.991000
38.711400	12.711100	492.066000
37.672200	12.773200	481.194100
36.651400	12.799700	469.128000
35.621400	12.800000	455.952600
34.591400	12.805000	442.943000
33.561500	12.805400	429.769400
32.529200	12.812800	416.789000
31.499200	12.814400	403.642500
30.460100	12.814100	390.319600
29.432400	12.817600	377.251600
28.400100	12.816700	363.994400
27.367800	12.810000	350.582500
26.335500	12.812800	337.431300
25.303300	12.814400	324.245600
24.271000	12.869500	312.356500
23.238700	12.871600	299.119500
22.231600	12.872700	286.182000
21.169600	12.878000	272.622300
20.144200	12.894300	259.744400
19.111900	12.896800	246.482100
18.075100	12.901600	233.197000
17.045100	12.903200	219.935900
16.010500	12.905200	206.619700
14.973700	12.909600	193.304100
13.946000	12.912600	180.078400
12.909100	12.912600	166.690000
11.876900	12.976900	154.124600
10.842300	13.150400	142.580300
9.810000	13.167300	129.171700
8.777800	13.167300	115.579400
7.754600	13.165500	102.093500
6.708600	13.169800	88.351500
5.676400	13.172100	74.769700
4.655500	13.181300	61.365800
3.616400	13.180100	47.664500
2.600100	13.187700	34.289800
2.430800	13.192000	32.066700
2.407900	13.193400	31.768100
2.403300	13.196400	31.714800
