date	time	module	serial	modype	area[m²]	
04.11.2025	17:33:01	PERC2_fixed_1MD439	my serial number	my module type	2.000000	
Sensorlist first point:
interface	channel	name	scalefactor	measurement value
COM1 301 Pyr 0.000009100 1116.385165

Monitor Cells:
interface	name	monitor channel	Channel-RTD4W	value	temperature	TempCorrIrradiance
COM1 015-2017 303 304 0.051780 38.079000 1053.502747
COM1 019-2017 305 306 0.052834 36.705000 1420.661979

Temperatures:
channel name	value	interface	voltage channel	current channel

electronic load: 
unit_id	port_type	port_number	SN	firmware	sweep_mode
8	TCP	192.168.152.8	ESL-SOLAR-500   SN  19.24.4495  	ET-ESL---------DEV-ET1502--U00008-V2.00.031	CV

Software Version: D:\measurement_programs\Outdoor_Dauer_Main_LV2012_ET2016_16bit_Messbereichsumschalter\Outdoor_Dauer_Main_LV2012_ET2016_16bit_v4.2_Autorange.exe\Outdoor_Dauer_Main_LV2012_ET2016_16bit_v4.2.vi-LV2012-ET2016_16bit_4.2_20170803
irradiation fluctuation in % according to monitor cell: 0.053129
Pmax	Imax	Umax	I@pmax	U@Pmax	FF_raw	Eta_raw	E0_pyr	MPPFit	IscFit	UocFit	EtaFit	ImppFit	UmppFit	FF_fit	MSE_MPPFit	Irradiation Fluctuation_in_percent		015-2017	019-2017	015-2017_temperature	019-2017_temperature
501.13	13.3017	50.378	12.3355	40.625	0.748	0.224	1116.4	500.53	13.2888	50.378	0.224	12.2507	40.858	0.748	3.23	0.0531		1053.50	1420.66	38.1	36.7	
U_raw[V]	I_raw[A]	P_raw[A]	
50.377700	0.000000	0.000000
49.910700	1.176500	58.718500
48.867000	3.582500	175.066700
47.830200	5.616600	268.643700
46.791000	7.336900	343.302000
45.758800	8.747800	400.287000
44.731100	9.884600	442.150500
43.707900	10.779400	471.143400
42.682500	11.468500	489.505900
41.654800	11.978700	498.971400
40.624900	12.335500	501.129800
39.604000	12.589400	498.590100
38.567200	12.733100	491.080500
37.605900	12.603800	473.976700
36.539300	12.812100	468.144000
35.495500	12.850300	456.128600
34.470100	12.863400	443.401600
33.453900	12.861100	430.252600
32.410200	12.858500	416.747700
31.387000	12.865600	403.814600
30.352500	12.865200	390.490400
29.322500	12.866800	377.286400
28.294800	12.877500	364.367600
27.271700	12.871400	351.023900
26.241700	12.866300	337.634400
25.214000	12.874600	324.619500
24.190900	12.923300	312.626700
23.158600	12.924700	299.318100
22.128600	12.917600	285.848900
21.091800	12.927900	272.672500
20.071000	12.950800	259.934700
19.045500	12.956700	246.768200
18.015600	12.953800	233.369400
16.987900	12.947600	219.951900
15.955600	12.957400	206.743500
14.927900	12.973400	193.666400
13.900200	12.964500	180.209500
12.904600	13.027500	168.113600
11.837900	13.025400	154.194100
10.808000	13.213300	142.809100
9.803200	13.222700	129.624300
8.761700	13.234800	115.960100
7.736300	13.241000	102.436800
6.690300	13.244000	88.606500
5.667200	13.238500	75.025200
4.646400	13.245600	61.544000
3.609500	13.258200	47.855700
2.591000	13.301700	34.464400
2.458200	13.256400	32.587100
2.435300	13.263400	32.301000
2.428500	13.264600	32.212700
