date	time	module	serial	modype	area[m²]	
17.10.2025	13:30:03	PERC2_fixed_1MD439	my serial number	my module type	2.000000	
Sensorlist first point:
interface	channel	name	scalefactor	measurement value
COM1 301 Pyr 0.000009100 797.188462

Monitor Cells:
interface	name	monitor channel	Channel-RTD4W	value	temperature	TempCorrIrradiance
COM1 015-2017 303 304 0.037750 31.934000 768.066124
COM1 019-2017 305 306 0.039105 31.416000 1051.480317

Temperatures:
channel name	value	interface	voltage channel	current channel

electronic load: 
unit_id	port_type	port_number	SN	firmware	sweep_mode
8	TCP	192.168.152.8	ESL-SOLAR-500   SN  19.24.4495  	ET-ESL---------DEV-ET1502--U00008-V2.00.031	CV

Software Version: D:\measurement_programs\Outdoor_Dauer_Main_LV2012_ET2016_16bit_Messbereichsumschalter\Outdoor_Dauer_Main_LV2012_ET2016_16bit_v4.2_Autorange.exe\Outdoor_Dauer_Main_LV2012_ET2016_16bit_v4.2.vi-LV2012-ET2016_16bit_4.2_20170803
irradiation fluctuation in % according to monitor cell: 0.061191
Pmax	Imax	Umax	I@pmax	U@Pmax	FF_raw	Eta_raw	E0_pyr	MPPFit	IscFit	UocFit	EtaFit	ImppFit	UmppFit	FF_fit	MSE_MPPFit	Irradiation Fluctuation_in_percent		015-2017	019-2017	015-2017_temperature	019-2017_temperature
373.39	9.5704	50.401	8.9403	41.765	0.774	0.234	797.2	371.70	9.5728	50.401	0.233	8.6857	42.794	0.770	10.37	0.0612		768.07	1051.48	31.9	31.4	
U_raw[V]	I_raw[A]	P_raw[A]	
50.400600	0.000000	0.000000
50.027500	0.855300	42.790700
48.974600	2.943000	144.132600
47.951500	4.618900	221.483400
46.910000	5.945500	278.904900
45.893800	6.968400	319.807000
44.852400	7.735600	346.961700
43.815500	8.291100	363.280700
42.792400	8.677500	371.331100
41.764700	8.940300	373.387400
40.714100	8.549800	348.096900
39.835200	8.416100	335.257600
38.862400	8.426400	327.471000
37.786700	8.393200	317.152100
36.468300	8.489600	309.600800
35.577900	8.606300	306.195000
34.584600	8.822800	305.134200
33.518000	9.179000	307.661000
32.483400	9.183100	298.298600
31.458000	9.189300	289.076600
30.423400	9.190700	279.611500
29.388900	9.199100	270.352100
28.354300	9.209900	261.140000
27.328900	9.218100	251.921400
26.305800	9.219700	242.532300
25.262100	9.229100	233.146600
24.236700	9.233900	223.799500
23.195200	9.240300	214.331700
22.169800	9.247200	205.008800
21.128400	9.263000	195.712200
20.114400	9.271700	186.494800
19.075300	9.270300	176.834000
18.045300	9.270800	167.294000
17.006200	9.276000	157.749900
15.976200	9.277400	148.217700
14.941600	9.282000	138.688100
13.925400	9.287900	129.338100
12.877100	9.411500	121.193200
11.849400	9.485500	112.397000
10.821700	9.478100	102.569600
9.789400	9.479500	92.799000
8.752600	9.487800	83.042300
7.731700	9.491200	73.383500
6.704100	9.505600	63.726100
5.674100	9.518700	54.009500
4.630400	9.519600	44.078900
3.600400	9.528300	34.305200
2.575000	9.539900	24.565000
1.538100	9.557300	14.700200
0.499000	9.565600	4.772900
0.139600	9.570400	1.336200
