date	time	module	serial	modype	area[m²]	
04.11.2025	17:29:21	PERC2_fixed_1MD439	my serial number	my module type	2.000000	
Sensorlist first point:
interface	channel	name	scalefactor	measurement value
COM1 301 Pyr 0.000009100 1114.307033

Monitor Cells:
interface	name	monitor channel	Channel-RTD4W	value	temperature	TempCorrIrradiance
COM1 015-2017 303 304 0.051828 37.348000 1054.487894
COM1 019-2017 305 306 0.053051 35.853000 1426.497822

Temperatures:
channel name	value	interface	voltage channel	current channel

electronic load: 
unit_id	port_type	port_number	SN	firmware	sweep_mode
8	TCP	192.168.152.8	ESL-SOLAR-500   SN  19.24.4495  	ET-ESL---------DEV-ET1502--U00008-V2.00.031	CV

Software Version: D:\measurement_programs\Outdoor_Dauer_Main_LV2012_ET2016_16bit_Messbereichsumschalter\Outdoor_Dauer_Main_LV2012_ET2016_16bit_v4.2_Autorange.exe\Outdoor_Dauer_Main_LV2012_ET2016_16bit_v4.2.vi-LV2012-ET2016_16bit_4.2_20170803
irradiation fluctuation in % according to monitor cell: -0.053079
Pmax	Imax	Umax	I@pmax	U@Pmax	FF_raw	Eta_raw	E0_pyr	MPPFit	IscFit	UocFit	EtaFit	ImppFit	UmppFit	FF_fit	MSE_MPPFit	Irradiation Fluctuation_in_percent		015-2017	019-2017	015-2017_temperature	019-2017_temperature
501.54	13.2671	50.382	12.3442	40.629	0.750	0.225	1114.3	501.38	13.2863	50.382	0.225	12.2957	40.777	0.749	1.07	-0.0531		1054.49	1426.50	37.3	35.9	
U_raw[V]	I_raw[A]	P_raw[A]	
50.382200	0.000000	0.000000
49.919900	1.180800	58.946400
48.871600	3.579300	174.926500
47.825600	5.625300	269.034000
46.797900	7.337600	343.384500
45.761000	8.755600	400.663100
44.728800	9.892000	442.455500
43.707900	10.792200	471.703600
42.682500	11.471700	489.642700
41.657100	11.980500	499.075100
40.629400	12.344200	501.539700
39.604000	12.597600	498.916500
38.576300	12.759900	492.230100
37.514300	12.715300	477.004400
36.530100	12.853300	469.531800
35.495500	12.858500	456.421100
34.467800	12.863100	443.364200
33.442400	12.870200	430.411600
32.412500	12.867200	417.059000
31.389300	12.869800	403.973300
30.361600	12.867900	390.691600
29.329400	12.876400	377.656700
28.301700	12.878700	364.488500
27.274000	12.879400	351.271800
26.246300	12.882600	338.119800
25.220900	12.883300	324.927300
24.197800	12.928400	312.837300
23.158600	12.935200	299.561900
22.135500	12.937300	286.373300
21.100900	12.939600	273.037200
20.077800	12.955400	260.115500
19.047800	12.966100	246.976600
18.020100	12.960200	233.544200
16.987900	12.965000	220.247400
15.962500	12.970200	207.037000
14.932500	12.971600	193.698400
13.900200	12.975300	180.359100
12.872500	12.995000	167.277800
11.847100	13.027900	154.343200
10.812500	13.222900	142.973600
9.771100	13.207600	129.053000
8.754900	13.245800	115.965400
7.745500	13.243800	102.579300
6.694900	13.251300	88.716200
5.671800	13.253800	75.172800
4.644100	13.256800	61.565700
3.618700	13.255700	47.968000
2.613900	13.264600	34.671900
2.465100	13.267100	32.704700
2.446800	13.266200	32.459500
2.439900	13.263400	32.361700
