date	time	module	serial	modype	area[m²]	
17.10.2025	14:35:03	PERC2_fixed_1MD439	my serial number	my module type	2.000000	
Sensorlist first point:
interface	channel	name	scalefactor	measurement value
COM1 301 Pyr 0.000009100 990.260330

Monitor Cells:
interface	name	monitor channel	Channel-RTD4W	value	temperature	TempCorrIrradiance
COM1 015-2017 303 304 0.048192 36.338000 980.503967
COM1 019-2017 305 306 0.049484 36.067000 1330.578677

Temperatures:
channel name	value	interface	voltage channel	current channel

electronic load: 
unit_id	port_type	port_number	SN	firmware	sweep_mode
8	TCP	192.168.152.8	ESL-SOLAR-500   SN  19.24.4495  	ET-ESL---------DEV-ET1502--U00008-V2.00.031	CV

Software Version: D:\measurement_programs\Outdoor_Dauer_Main_LV2012_ET2016_16bit_Messbereichsumschalter\Outdoor_Dauer_Main_LV2012_ET2016_16bit_v4.2_Autorange.exe\Outdoor_Dauer_Main_LV2012_ET2016_16bit_v4.2.vi-LV2012-ET2016_16bit_4.2_20170803
irradiation fluctuation in % according to monitor cell: -0.155234
Pmax	Imax	Umax	I@pmax	U@Pmax	FF_raw	Eta_raw	E0_pyr	MPPFit	IscFit	UocFit	EtaFit	ImppFit	UmppFit	FF_fit	MSE_MPPFit	Irradiation Fluctuation_in_percent		015-2017	019-2017	015-2017_temperature	019-2017_temperature
18.53	4.2316	5.486	4.0918	4.528	0.798	0.009	990.3	18.55	4.2214	5.486	0.009	4.0523	4.578	0.801	0.00	-0.1552		980.50	1330.58	36.3	36.1	
U_raw[V]	I_raw[A]	P_raw[A]	
5.485700	0.000000	0.000000
4.937300	3.397300	16.773700
4.833400	3.667900	17.728300
4.732200	3.863100	18.281100
4.632400	3.990400	18.485100
4.527800	4.091800	18.526800
4.429800	4.144000	18.357100
4.325000	4.183300	18.093000
4.226100	4.202100	17.758700
4.120600	4.213600	17.362400
4.022200	4.212400	16.943100
3.919000	4.200700	16.462600
3.822200	4.196800	16.041000
3.711400	4.204400	15.604100
3.620100	4.213100	15.251600
3.512500	4.213100	14.798400
3.415200	4.214200	14.392500
3.312400	4.216300	13.966200
3.212200	4.215400	13.540500
3.109200	4.214500	13.103500
3.008500	4.217200	12.687400
2.905200	4.217700	12.253300
2.804100	4.216100	11.822200
2.701800	4.217900	11.395800
2.600100	4.218400	10.968300
2.497800	4.217900	10.535600
2.399400	4.215800	10.115500
2.295700	4.218600	9.684700
2.197800	4.219500	9.273400
2.095400	4.218800	8.840300
1.992700	4.223800	8.416800
1.893100	4.222200	7.993200
1.793100	4.219000	7.565100
1.688500	4.223200	7.130800
1.586200	4.225200	6.701900
1.484300	4.221300	6.265800
1.383200	4.220200	5.837200
1.282700	4.219700	5.412500
1.179000	4.218600	4.973700
1.080100	4.224500	4.563000
0.975700	4.222900	4.120500
0.874800	4.226100	3.697000
0.774100	4.226400	3.271600
0.674300	4.228400	2.851200
0.573100	4.225000	2.421500
0.472200	4.224100	1.994600
0.370800	4.231600	1.569100
0.262800	4.230900	1.111700
0.165500	4.227100	0.699500
0.102300	4.224300	0.432200
0.101600	4.223600	0.429200
