date	time	module	serial	modype	area[m²]	
04.11.2025	17:28:09	PERC2_fixed_1MD439	my serial number	my module type	2.000000	
Sensorlist first point:
interface	channel	name	scalefactor	measurement value
COM1 301 Pyr 0.000009100 1115.611868

Monitor Cells:
interface	name	monitor channel	Channel-RTD4W	value	temperature	TempCorrIrradiance
COM1 015-2017 303 304 0.051710 37.508000 1052.092574
COM1 019-2017 305 306 0.052994 36.077000 1424.951654

Temperatures:
channel name	value	interface	voltage channel	current channel

electronic load: 
unit_id	port_type	port_number	SN	firmware	sweep_mode
8	TCP	192.168.152.8	ESL-SOLAR-500   SN  19.24.4495  	ET-ESL---------DEV-ET1502--U00008-V2.00.031	CV

Software Version: D:\measurement_programs\Outdoor_Dauer_Main_LV2012_ET2016_16bit_Messbereichsumschalter\Outdoor_Dauer_Main_LV2012_ET2016_16bit_v4.2_Autorange.exe\Outdoor_Dauer_Main_LV2012_ET2016_16bit_v4.2.vi-LV2012-ET2016_16bit_4.2_20170803
irradiation fluctuation in % according to monitor cell: 0.357453
Pmax	Imax	Umax	I@pmax	U@Pmax	FF_raw	Eta_raw	E0_pyr	MPPFit	IscFit	UocFit	EtaFit	ImppFit	UmppFit	FF_fit	MSE_MPPFit	Irradiation Fluctuation_in_percent		015-2017	019-2017	015-2017_temperature	019-2017_temperature
500.32	13.2884	50.233	12.3511	40.508	0.750	0.224	1115.6	500.45	13.2830	50.233	0.224	12.3355	40.570	0.750	0.07	0.3575		1052.09	1424.95	37.5	36.1	
U_raw[V]	I_raw[A]	P_raw[A]	
50.233500	0.000000	0.000000
49.780300	1.165900	58.040900
48.727400	3.572000	174.053500
47.686000	5.601300	267.102500
46.658300	7.317200	341.409600
45.628300	8.731700	398.414700
44.605200	9.879600	440.681500
43.584300	10.775000	469.621500
42.554400	11.466700	487.957900
41.531200	11.979600	497.528900
40.508100	12.351100	500.320300
39.482700	12.605900	497.713600
38.461900	12.774500	491.333300
37.429600	12.835400	480.425300
36.417900	12.875000	468.882100
35.385700	12.879100	455.737300
34.369400	12.889200	442.995000
33.344000	12.888800	429.763000
32.318600	12.885100	416.428500
31.295500	12.884600	403.231200
30.267800	12.888300	390.100600
29.242400	12.893300	377.032000
28.221600	12.893300	363.870200
27.191600	12.893600	350.596500
26.168500	12.899700	337.566500
25.147600	12.900400	324.415400
24.122200	12.949600	312.374200
23.090000	12.951500	299.049000
22.066800	12.954700	285.868800
21.043700	12.964800	272.826500
20.018300	12.980100	259.839400
18.986000	12.980100	246.440400
17.962900	12.982600	233.205500
16.937500	12.985400	219.939600
15.912100	12.994500	206.770000
14.882100	12.996100	193.409700
13.916200	13.004100	180.968300
12.835900	13.000200	166.869500
11.812800	13.038500	154.020300
10.737000	13.200000	141.729000
9.757400	13.260000	129.383000
8.734300	13.267300	115.880400
7.720300	13.275800	102.493200
6.674300	13.280800	88.640300
5.653500	13.288400	75.125500
4.630400	13.286600	61.521400
3.607200	13.284500	47.920300
2.600100	13.283800	34.539700
2.455900	13.287000	32.632100
2.437600	13.281100	32.374300
2.430800	13.284300	32.290900
