date	time	module	serial	modype	area[m²]	
17.10.2025	14:00:03	PERC2_fixed_1MD439	my serial number	my module type	2.000000	
Sensorlist first point:
interface	channel	name	scalefactor	measurement value
COM1 301 Pyr 0.000009100 894.461319

Monitor Cells:
interface	name	monitor channel	Channel-RTD4W	value	temperature	TempCorrIrradiance
COM1 015-2017 303 304 0.043015 34.124000 875.180671
COM1 019-2017 305 306 0.044394 33.650000 1193.704974

Temperatures:
channel name	value	interface	voltage channel	current channel

electronic load: 
unit_id	port_type	port_number	SN	firmware	sweep_mode
8	TCP	192.168.152.8	ESL-SOLAR-500   SN  19.24.4495  	ET-ESL---------DEV-ET1502--U00008-V2.00.031	CV

Software Version: D:\measurement_programs\Outdoor_Dauer_Main_LV2012_ET2016_16bit_Messbereichsumschalter\Outdoor_Dauer_Main_LV2012_ET2016_16bit_v4.2_Autorange.exe\Outdoor_Dauer_Main_LV2012_ET2016_16bit_v4.2.vi-LV2012-ET2016_16bit_4.2_20170803
irradiation fluctuation in % according to monitor cell: -0.189282
Pmax	Imax	Umax	I@pmax	U@Pmax	FF_raw	Eta_raw	E0_pyr	MPPFit	IscFit	UocFit	EtaFit	ImppFit	UmppFit	FF_fit	MSE_MPPFit	Irradiation Fluctuation_in_percent		015-2017	019-2017	015-2017_temperature	019-2017_temperature
415.52	10.7890	50.304	10.0039	41.536	0.766	0.232	894.5	413.65	10.8040	50.304	0.231	9.7053	42.621	0.761	18.53	-0.1893		875.18	1193.70	34.1	33.6	
U_raw[V]	I_raw[A]	P_raw[A]	
50.304400	0.000000	0.000000
49.771100	1.268300	63.122400
48.741100	3.445400	167.933200
47.706600	5.233700	249.681500
46.676600	6.660600	310.892300
45.660300	7.784200	355.427400
44.628100	8.631700	385.217100
43.602700	9.262500	403.870900
42.572700	9.707500	413.273500
41.535800	10.003900	415.519800
40.450900	9.400800	380.270000
39.439200	9.328900	367.925000
38.269600	9.295000	355.717500
37.708900	9.272600	349.659200
37.033600	9.333500	345.653000
36.475200	9.440800	344.356000
34.634900	9.823300	340.229300
34.410600	9.673400	332.867000
32.314000	10.310100	333.162200
31.297800	10.314500	322.820600
30.263200	10.323900	312.433600
29.240100	10.336500	302.239200
28.210100	10.347000	291.889800
27.196200	10.361200	281.784300
26.161600	10.387300	271.747600
25.140800	10.403800	261.558300
24.103900	10.404700	250.793200
23.083100	10.407000	240.224700
22.053100	10.416100	229.707600
21.030000	10.432800	219.402100
19.995400	10.444700	208.846700
18.974600	10.446600	198.219100
17.949200	10.452000	187.605800
16.930600	10.452000	176.959900
15.891500	10.454600	166.138800
14.873000	10.459100	155.558500
13.843000	10.461700	144.820600
12.824400	10.550500	135.303900
11.789900	10.700400	126.156300
10.764500	10.702200	115.203800
9.732200	10.705000	104.182900
8.711400	10.708400	93.284900
7.683700	10.713900	82.322100
6.662900	10.724700	71.456800
5.632900	10.731100	60.446600
4.607500	10.732400	49.449300
3.572900	10.741100	38.377000
2.552100	10.754400	27.446000
1.515200	10.785100	16.341800
0.741600	10.788300	8.000500
0.741600	10.789000	8.001000
