date	time	module	serial	modype	area[m²]	
17.10.2025	14:30:04	PERC2_fixed_1MD439	my serial number	my module type	2.000000	
Sensorlist first point:
interface	channel	name	scalefactor	measurement value
COM1 301 Pyr 0.000009100 974.130769

Monitor Cells:
interface	name	monitor channel	Channel-RTD4W	value	temperature	TempCorrIrradiance
COM1 015-2017 303 304 0.047432 37.662000 965.035809
COM1 019-2017 305 306 0.048920 37.127000 1315.415488

Temperatures:
channel name	value	interface	voltage channel	current channel

electronic load: 
unit_id	port_type	port_number	SN	firmware	sweep_mode
8	TCP	192.168.152.8	ESL-SOLAR-500   SN  19.24.4495  	ET-ESL---------DEV-ET1502--U00008-V2.00.031	CV

Software Version: D:\measurement_programs\Outdoor_Dauer_Main_LV2012_ET2016_16bit_Messbereichsumschalter\Outdoor_Dauer_Main_LV2012_ET2016_16bit_v4.2_Autorange.exe\Outdoor_Dauer_Main_LV2012_ET2016_16bit_v4.2.vi-LV2012-ET2016_16bit_4.2_20170803
irradiation fluctuation in % according to monitor cell: 0.034787
Pmax	Imax	Umax	I@pmax	U@Pmax	FF_raw	Eta_raw	E0_pyr	MPPFit	IscFit	UocFit	EtaFit	ImppFit	UmppFit	FF_fit	MSE_MPPFit	Irradiation Fluctuation_in_percent		015-2017	019-2017	015-2017_temperature	019-2017_temperature
18.23	4.1714	5.473	3.9419	4.625	0.799	0.009	974.1	18.23	4.1712	5.473	0.009	3.9835	4.577	0.799	0.00	0.0348		965.04	1315.42	37.7	37.1	
U_raw[V]	I_raw[A]	P_raw[A]	
5.473300	0.000000	0.000000
4.935200	3.340100	16.484300
4.828100	3.607200	17.416100
4.723700	3.804300	17.970500
4.625100	3.941900	18.231500
4.527800	4.022400	18.212800
4.419800	4.069800	17.987600
4.314300	4.115600	17.755700
4.212200	4.139800	17.437800
4.113500	4.145800	17.053900
4.011400	4.147400	16.637100
3.909600	4.143100	16.197600
3.818000	4.144000	15.821800
3.707700	4.150400	15.388400
3.609800	4.156800	15.005000
3.505600	4.158800	14.579300
3.398500	4.158400	14.132200
3.300800	4.145300	13.682800
3.203000	4.158800	13.320900
3.101200	4.157200	12.892300
2.999800	4.146000	12.437100
2.903900	4.152000	12.056800
2.792200	4.162300	11.621800
2.696700	4.154000	11.202300
2.587500	4.152700	10.745200
2.489600	4.163200	10.364600
2.390900	4.159100	9.944100
2.288900	4.163000	9.528400
2.179900	4.153400	9.053900
2.087400	4.164100	8.692300
1.981500	4.155600	8.234200
1.878200	4.153400	7.801000
1.775000	4.164100	7.391300
1.681400	4.163200	7.000000
1.579100	4.163700	6.574700
1.479700	4.166200	6.164900
1.374000	4.153100	5.706400
1.268300	4.161600	5.278000
1.165500	4.164800	4.854000
1.065000	4.162300	4.432800
0.967000	4.167100	4.029700
0.863400	4.166200	3.596900
0.770400	4.168900	3.211900
0.663300	4.165300	2.762900
0.564200	4.167500	2.351300
0.455700	4.156100	1.894000
0.363200	4.166900	1.513600
0.249300	4.167500	1.038800
0.164600	4.171400	0.686500
0.102500	4.171200	0.427700
0.101900	4.167500	0.424500
