date	time	module	serial	modype	area[m²]	
04.11.2025	17:31:13	PERC2_fixed_1MD439	my serial number	my module type	2.000000	
Sensorlist first point:
interface	channel	name	scalefactor	measurement value
COM1 301 Pyr 0.000009100 1114.246593

Monitor Cells:
interface	name	monitor channel	Channel-RTD4W	value	temperature	TempCorrIrradiance
COM1 015-2017 303 304 0.051845 37.420000 1054.823601
COM1 019-2017 305 306 0.052933 35.885000 1423.322694

Temperatures:
channel name	value	interface	voltage channel	current channel

electronic load: 
unit_id	port_type	port_number	SN	firmware	sweep_mode
8	TCP	192.168.152.8	ESL-SOLAR-500   SN  19.24.4495  	ET-ESL---------DEV-ET1502--U00008-V2.00.031	CV

Software Version: D:\measurement_programs\Outdoor_Dauer_Main_LV2012_ET2016_16bit_Messbereichsumschalter\Outdoor_Dauer_Main_LV2012_ET2016_16bit_v4.2_Autorange.exe\Outdoor_Dauer_Main_LV2012_ET2016_16bit_v4.2.vi-LV2012-ET2016_16bit_4.2_20170803
irradiation fluctuation in % according to monitor cell: -0.118836
Pmax	Imax	Umax	I@pmax	U@Pmax	FF_raw	Eta_raw	E0_pyr	MPPFit	IscFit	UocFit	EtaFit	ImppFit	UmppFit	FF_fit	MSE_MPPFit	Irradiation Fluctuation_in_percent		015-2017	019-2017	015-2017_temperature	019-2017_temperature
501.47	13.2699	50.410	12.3369	40.648	0.750	0.225	1114.2	501.61	13.2845	50.410	0.225	12.3086	40.753	0.749	0.11	-0.1188		1054.82	1423.32	37.4	35.9	
U_raw[V]	I_raw[A]	P_raw[A]	
50.409700	0.000000	0.000000
49.949600	1.169600	58.421300
48.896800	3.583700	175.229300
47.855300	5.620300	268.960400
46.813900	7.338100	343.523500
45.788500	8.757200	400.977000
44.751700	9.891500	442.661400
43.728500	10.788300	471.755800
42.700800	11.467600	489.676800
41.673200	11.976400	499.095400
40.647700	12.336900	501.468000
39.617800	12.589600	498.772100
38.587800	12.751000	492.031700
37.564700	12.789900	480.447600
36.543800	12.844800	469.398800
35.507000	12.856000	456.478900
34.481600	12.848000	443.020000
33.456200	12.856900	430.144200
32.426200	12.850800	416.701400
31.403100	12.858800	403.805100
30.368500	12.871800	390.898100
29.338500	12.873000	377.673900
28.306200	12.870000	364.301200
27.280800	12.871800	351.154200
26.255400	12.873200	337.991400
25.225500	12.880300	324.911200
24.202300	12.928800	312.907600
23.160900	12.929300	299.453700
22.135500	12.926500	286.135200
21.100900	12.924700	272.723200
20.073200	12.932300	259.592200
19.047800	12.945300	246.579900
18.013300	12.949400	233.261400
16.990200	12.951000	220.039900
15.960200	12.947400	206.642100
14.930200	12.959700	193.491000
13.913900	12.983500	180.651900
12.865600	12.957000	166.699800
11.835700	13.016900	154.064000
10.801100	13.208700	142.668900
9.780300	13.217200	129.267900
8.743400	13.242600	115.785800
7.724900	13.243100	102.301200
6.683500	13.240300	88.491100
5.658000	13.243500	74.932500
4.628100	13.243500	61.291900
3.600400	13.252500	47.713700
2.604700	13.258400	34.534400
2.449100	13.269900	32.498800
2.428500	13.264400	32.212200
2.419300	13.256400	32.071300
